Data from HR2B16521__3__17-53-24-467.txt Node

Date: Wed Jan 29 17:53:24 EST 2025
User: Lanmp
Spectrometer: HR2B1652
Trigger mode: 4
Integration Time (sec): 1.000000E-1
Scans to average: 1
Electric dark correction enabled: true
Nonlinearity correction enabled: false
Boxcar width: 0
XAxis mode: Wavelengths
Number of Pixels in Spectrum: 2048
>>>>>Begin Spectral Data<<<<<
188.381	-300.56
188.85	9.44
189.319	1.44
189.787	6.44
190.256	12.44
190.725	20.44
191.193	21.44
191.662	24.44
192.13	23.44
192.599	19.44
193.067	18.44
193.536	20.44
194.004	23.44
194.473	19.44
194.941	12.44
195.409	24.44
195.878	15.44
196.346	27.44
196.814	19.44
197.282	21.44
197.751	20.44
198.219	8.44
198.687	20.44
199.155	21.44
199.623	18.44
200.091	14.44
200.559	23.44
201.028	24.44
201.496	12.44
201.964	31.44
202.432	11.44
202.899	26.44
203.367	18.44
203.835	16.44
204.303	17.44
204.771	20.44
205.239	25.44
205.707	25.44
206.174	33.44
206.642	23.44
207.11	21.44
207.577	32.44
208.045	27.44
208.513	28.44
208.98	21.44
209.448	18.44
209.915	16.44
210.383	29.44
210.851	30.44
211.318	28.44
211.785	27.44
212.253	16.44
212.72	18.44
213.188	23.44
213.655	26.44
214.122	22.44
214.59	23.44
215.057	21.44
215.524	25.44
215.991	23.44
216.459	23.44
216.926	26.44
217.393	30.44
217.86	27.44
218.327	28.44
218.794	20.44
219.261	25.44
219.728	28.44
220.195	17.44
220.662	25.44
221.129	23.44
221.596	25.44
222.063	26.44
222.53	23.44
222.997	20.44
223.463	29.44
223.93	23.44
224.397	31.44
224.864	26.44
225.33	28.44
225.797	17.44
226.264	23.44
226.73	19.44
227.197	21.44
227.663	14.44
228.13	20.44
228.596	25.44
229.063	36.44
229.529	19.44
229.996	22.44
230.462	25.44
230.929	28.44
231.395	25.44
231.861	32.44
232.328	17.44
232.794	26.44
233.26	33.44
233.726	21.44
234.193	36.44
234.659	25.44
235.125	32.44
235.591	21.44
236.057	18.44
236.523	26.44
236.989	26.44
237.455	32.44
237.921	20.44
238.387	21.44
238.853	27.44
239.319	28.44
239.785	33.44
240.251	32.44
240.717	25.44
241.183	35.44
241.648	27.44
242.114	26.44
242.58	34.44
243.046	21.44
243.511	27.44
243.977	25.44
244.443	27.44
244.908	21.44
245.374	29.44
245.839	27.44
246.305	12.44
246.77	27.44
247.236	30.44
247.701	22.44
248.167	24.44
248.632	23.44
249.098	36.44
249.563	32.44
250.028	27.44
250.493	32.44
250.959	23.44
251.424	31.44
251.889	26.44
252.354	21.44
252.82	21.44
253.285	30.44
253.75	34.44
254.215	33.44
254.68	22.44
255.145	35.44
255.61	26.44
256.075	34.44
256.54	33.44
257.005	34.44
257.47	28.44
257.935	30.44
258.4	33.44
258.864	32.44
259.329	27.44
259.794	37.44
260.259	39.44
260.723	32.44
261.188	21.44
261.653	23.44
262.117	26.44
262.582	30.44
263.047	25.44
263.511	34.44
263.976	28.44
264.44	28.44
264.905	33.44
265.369	40.44
265.834	27.44
266.298	25.44
266.762	20.44
267.227	28.44
267.691	31.44
268.155	45.44
268.62	32.44
269.084	35.44
269.548	25.44
270.012	29.44
270.476	31.44
270.941	36.44
271.405	38.44
271.869	30.44
272.333	26.44
272.797	27.44
273.261	24.44
273.725	19.44
274.189	33.44
274.653	31.44
275.117	34.44
275.581	34.44
276.044	30.44
276.508	23.44
276.972	26.44
277.436	29.44
277.9	29.44
278.363	32.44
278.827	30.44
279.291	25.44
279.754	27.44
280.218	26.44
280.682	23.44
281.145	41.44
281.609	30.44
282.072	32.44
282.536	31.44
282.999	26.44
283.463	31.44
283.926	26.44
284.389	34.44
284.853	30.44
285.316	29.44
285.779	31.44
286.243	30.44
286.706	31.44
287.169	35.44
287.632	30.44
288.096	36.44
288.559	33.44
289.022	31.44
289.485	28.44
289.948	33.44
290.411	43.44
290.874	34.44
291.337	23.44
291.8	32.44
292.263	28.44
292.726	38.44
293.189	22.44
293.652	27.44
294.114	27.44
294.577	37.44
295.04	34.44
295.503	34.44
295.966	28.44
296.428	27.44
296.891	25.44
297.354	28.44
297.816	34.44
298.279	25.44
298.741	31.44
299.204	36.44
299.666	41.44
300.129	34.44
300.591	47.44
301.054	38.44
301.516	38.44
301.979	32.44
302.441	31.44
302.903	30.44
303.366	25.44
303.828	32.44
304.29	22.44
304.752	25.44
305.215	22.44
305.677	29.44
306.139	35.44
306.601	30.44
307.063	36.44
307.525	36.44
307.987	28.44
308.449	25.44
308.911	36.44
309.373	23.44
309.835	28.44
310.297	29.44
310.759	25.44
311.221	40.44
311.683	31.44
312.145	31.44
312.606	37.44
313.068	30.44
313.53	34.44
313.992	31.44
314.453	26.44
314.915	38.44
315.376	26.44
315.838	31.44
316.3	30.44
316.761	26.44
317.223	33.44
317.684	28.44
318.146	28.44
318.607	33.44
319.069	33.44
319.53	32.44
319.991	39.44
320.453	17.44
320.914	33.44
321.375	30.44
321.836	31.44
322.298	34.44
322.759	24.44
323.22	25.44
323.681	32.44
324.142	32.44
324.603	35.44
325.064	29.44
325.526	23.44
325.987	31.44
326.448	31.44
326.909	29.44
327.369	27.44
327.83	26.44
328.291	31.44
328.752	35.44
329.213	21.44
329.674	27.44
330.135	43.44
330.595	35.44
331.056	37.44
331.517	35.44
331.977	30.44
332.438	28.44
332.899	24.44
333.359	25.44
333.82	30.44
334.28	37.44
334.741	37.44
335.201	31.44
335.662	22.44
336.122	35.44
336.583	36.44
337.043	23.44
337.503	30.44
337.964	27.44
338.424	40.44
338.884	36.44
339.345	34.44
339.805	32.44
340.265	35.44
340.725	31.44
341.185	31.44
341.645	32.44
342.105	26.44
342.566	29.44
343.026	31.44
343.486	32.44
343.946	39.44
344.406	26.44
344.865	31.44
345.325	36.44
345.785	28.44
346.245	29.44
346.705	31.44
347.165	29.44
347.625	28.44
348.084	31.44
348.544	35.44
349.004	28.44
349.463	36.44
349.923	35.44
350.383	41.44
350.842	34.44
351.302	31.44
351.761	25.44
352.221	34.44
352.68	30.44
353.14	29.44
353.599	30.44
354.059	34.44
354.518	26.44
354.977	28.44
355.437	38.44
355.896	24.44
356.355	27.44
356.814	36.44
357.274	27.44
357.733	20.44
358.192	36.44
358.651	33.44
359.11	26.44
359.569	34.44
360.028	29.44
360.487	33.44
360.946	28.44
361.405	25.44
361.864	33.44
362.323	28.44
362.782	30.44
363.241	33.44
363.7	30.44
364.159	33.44
364.617	31.44
365.076	33.44
365.535	26.44
365.994	27.44
366.452	35.44
366.911	29.44
367.37	29.44
367.828	32.44
368.287	34.44
368.745	27.44
369.204	32.44
369.662	28.44
370.121	25.44
370.579	36.44
371.038	29.44
371.496	16.44
371.955	28.44
372.413	31.44
372.871	24.44
373.329	32.44
373.788	21.44
374.246	31.44
374.704	29.44
375.162	29.44
375.62	43.44
376.079	26.44
376.537	36.44
376.995	21.44
377.453	30.44
377.911	28.44
378.369	36.44
378.827	30.44
379.285	26.44
379.743	33.44
380.201	27.44
380.658	35.44
381.116	27.44
381.574	31.44
382.032	27.44
382.49	31.44
382.947	32.44
383.405	31.44
383.863	32.44
384.32	31.44
384.778	25.44
385.236	30.44
385.693	44.44
386.151	34.44
386.608	20.44
387.066	26.44
387.523	26.44
387.981	26.44
388.438	27.44
388.895	22.44
389.353	31.44
389.81	29.44
390.267	34.44
390.725	32.44
391.182	31.44
391.639	36.44
392.096	40.44
392.553	29.44
393.011	25.44
393.468	31.44
393.925	26.44
394.382	35.44
394.839	28.44
395.296	35.44
395.753	34.44
396.21	25.44
396.667	33.44
397.124	23.44
397.58	27.44
398.037	36.44
398.494	38.44
398.951	41.44
399.408	29.44
399.864	37.44
400.321	32.44
400.778	28.44
401.234	26.44
401.691	33.44
402.148	25.44
402.604	29.44
403.061	25.44
403.517	31.44
403.974	37.44
404.43	28.44
404.887	23.44
405.343	29.44
405.8	39.44
406.256	35.44
406.712	27.44
407.169	35.44
407.625	29.44
408.081	29.44
408.537	32.44
408.994	34.44
409.45	23.44
409.906	36.44
410.362	31.44
410.818	40.44
411.274	35.44
411.73	32.44
412.186	36.44
412.642	32.44
413.098	33.44
413.554	43.44
414.01	32.44
414.466	41.44
414.922	41.44
415.378	47.44
415.833	48.44
416.289	41.44
416.745	49.44
417.201	57.44
417.656	46.44
418.112	56.44
418.568	49.44
419.023	47.44
419.479	58.44
419.934	49.44
420.39	62.44
420.845	63.44
421.301	78.44
421.756	80.44
422.212	84.44
422.667	81.44
423.122	81.44
423.578	88.44
424.033	91.44
424.488	94.44
424.944	99.44
425.399	95.44
425.854	105.44
426.309	111.44
426.764	112.44
427.22	121.44
427.675	137.44
428.13	127.44
428.585	127.44
429.04	144.44
429.495	156.44
429.95	167.44
430.405	172.44
430.86	172.44
431.315	202.44
431.769	185.44
432.224	200.44
432.679	222.44
433.134	212.44
433.589	230.44
434.043	235.44
434.498	257.44
434.953	244.44
435.407	283.44
435.862	295.44
436.317	295.44
436.771	305.44
437.226	301.44
437.68	333.44
438.135	350.44
438.589	348.44
439.044	369.44
439.498	390.44
439.952	411.44
440.407	401.44
440.861	416.44
441.315	428.44
441.77	452.44
442.224	440.44
442.678	469.44
443.132	458.44
443.586	483.44
444.04	474.44
444.495	465.44
444.949	484.44
445.403	476.44
445.857	491.44
446.311	479.44
446.765	490.44
447.219	485.44
447.673	480.44
448.126	464.44
448.58	476.44
449.034	449.44
449.488	434.44
449.942	427.44
450.396	424.44
450.849	417.44
451.303	405.44
451.757	385.44
452.21	355.44
452.664	359.44
453.117	351.44
453.571	320.44
454.025	312.44
454.478	288.44
454.932	294.44
455.385	260.44
455.838	242.44
456.292	249.44
456.745	238.44
457.199	242.44
457.652	230.44
458.105	225.44
458.559	196.44
459.012	201.44
459.465	198.44
459.918	188.44
460.371	191.44
460.824	183.44
461.278	183.44
461.731	175.44
462.184	173.44
462.637	164.44
463.09	155.44
463.543	146.44
463.996	151.44
464.449	128.44
464.901	141.44
465.354	132.44
465.807	143.44
466.26	133.44
466.713	113.44
467.165	109.44
467.618	107.44
468.071	110.44
468.524	101.44
468.976	100.44
469.429	93.44
469.881	95.44
470.334	88.44
470.787	94.44
471.239	94.44
471.692	91.44
472.144	85.44
472.596	81.44
473.049	89.44
473.501	90.44
473.954	70.44
474.406	75.44
474.858	78.44
475.31	79.44
475.763	85.44
476.215	81.44
476.667	77.44
477.119	78.44
477.571	91.44
478.024	78.44
478.476	82.44
478.928	72.44
479.38	72.44
479.832	76.44
480.284	79.44
480.736	76.44
481.187	85.44
481.639	74.44
482.091	83.44
482.543	77.44
482.995	85.44
483.447	74.44
483.898	79.44
484.35	94.44
484.802	65.44
485.254	76.44
485.705	74.44
486.157	83.44
486.608	88.44
487.06	84.44
487.511	79.44
487.963	94.44
488.414	101.44
488.866	104.44
489.317	85.44
489.769	86.44
490.22	95.44
490.671	92.44
491.123	88.44
491.574	97.44
492.025	88.44
492.477	101.44
492.928	110.44
493.379	102.44
493.83	97.44
494.281	107.44
494.732	99.44
495.183	110.44
495.634	110.44
496.085	106.44
496.536	114.44
496.987	124.44
497.438	118.44
497.889	122.44
498.34	119.44
498.791	129.44
499.242	123.44
499.693	137.44
500.143	126.44
500.594	141.44
501.045	139.44
501.496	125.44
501.946	137.44
502.397	138.44
502.848	150.44
503.298	152.44
503.749	151.44
504.199	160.44
504.65	147.44
505.1	157.44
505.551	174.44
506.001	166.44
506.451	172.44
506.902	172.44
507.352	185.44
507.802	169.44
508.253	180.44
508.703	186.44
509.153	186.44
509.603	188.44
510.054	197.44
510.504	200.44
510.954	215.44
511.404	211.44
511.854	218.44
512.304	228.44
512.754	251.44
513.204	224.44
513.654	234.44
514.104	256.44
514.554	257.44
515.004	273.44
515.454	259.44
515.903	271.44
516.353	271.44
516.803	295.44
517.253	290.44
517.702	304.44
518.152	310.44
518.602	317.44
519.051	316.44
519.501	334.44
519.951	314.44
520.4	341.44
520.85	354.44
521.299	338.44
521.749	349.44
522.198	353.44
522.647	380.44
523.097	378.44
523.546	387.44
523.996	397.44
524.445	399.44
524.894	413.44
525.343	417.44
525.793	415.44
526.242	432.44
526.691	434.44
527.14	455.44
527.589	461.44
528.038	437.44
528.487	462.44
528.936	464.44
529.385	482.44
529.834	485.44
530.283	497.44
530.732	507.44
531.181	497.44
531.63	497.44
532.079	499.44
532.528	525.44
532.976	521.44
533.425	523.44
533.874	535.44
534.323	536.44
534.771	541.44
535.22	551.44
535.669	552.44
536.117	572.44
536.566	557.44
537.014	577.44
537.463	588.44
537.911	562.44
538.36	585.44
538.808	584.44
539.256	595.44
539.705	607.44
540.153	598.44
540.602	579.44
541.05	599.44
541.498	586.44
541.946	599.44
542.395	593.44
542.843	603.44
543.291	591.44
543.739	587.44
544.187	602.44
544.635	618.44
545.083	621.44
545.531	602.44
545.979	595.44
546.427	615.44
546.875	607.44
547.323	585.44
547.771	601.44
548.219	602.44
548.667	594.44
549.114	604.44
549.562	583.44
550.01	578.44
550.458	574.44
550.905	595.44
551.353	602.44
551.801	579.44
552.248	576.44
552.696	588.44
553.143	588.44
553.591	577.44
554.038	586.44
554.486	558.44
554.933	552.44
555.381	567.44
555.828	563.44
556.275	567.44
556.723	556.44
557.17	540.44
557.617	548.44
558.065	546.44
558.512	529.44
558.959	549.44
559.406	533.44
559.853	528.44
560.3	542.44
560.747	524.44
561.195	527.44
561.642	519.44
562.089	534.44
562.536	525.44
562.982	534.44
563.429	514.44
563.876	487.44
564.323	516.44
564.77	510.44
565.217	498.44
565.664	487.44
566.11	495.44
566.557	493.44
567.004	482.44
567.45	487.44
567.897	471.44
568.344	478.44
568.79	479.44
569.237	461.44
569.683	459.44
570.13	448.44
570.576	446.44
571.023	450.44
571.469	446.44
571.916	446.44
572.362	437.44
572.808	436.44
573.255	424.44
573.701	415.44
574.147	401.44
574.593	414.44
575.04	400.44
575.486	409.44
575.932	406.44
576.378	393.44
576.824	396.44
577.27	387.44
577.716	372.44
578.162	386.44
578.608	367.44
579.054	375.44
579.5	364.44
579.946	354.44
580.392	347.44
580.838	357.44
581.284	331.44
581.729	329.44
582.175	326.44
582.621	317.44
583.066	312.44
583.512	324.44
583.958	320.44
584.403	306.44
584.849	301.44
585.295	307.44
585.74	288.44
586.186	295.44
586.631	293.44
587.077	274.44
587.522	274.44
587.967	259.44
588.413	255.44
588.858	250.44
589.303	260.44
589.749	264.44
590.194	247.44
590.639	232.44
591.084	221.44
591.53	221.44
591.975	214.44
592.42	223.44
592.865	227.44
593.31	234.44
593.755	209.44
594.2	214.44
594.645	206.44
595.09	202.44
595.535	192.44
595.98	184.44
596.425	193.44
596.87	180.44
597.314	175.44
597.759	191.44
598.204	175.44
598.649	172.44
599.094	156.44
599.538	169.44
599.983	152.44
600.427	147.44
600.872	141.44
601.317	146.44
601.761	139.44
602.206	138.44
602.65	138.44
603.095	140.44
603.539	137.44
603.983	138.44
604.428	138.44
604.872	132.44
605.317	121.44
605.761	119.44
606.205	125.44
606.649	116.44
607.094	125.44
607.538	116.44
607.982	114.44
608.426	109.44
608.87	107.44
609.314	98.44
609.758	97.44
610.202	116.44
610.646	90.44
611.09	105.44
611.534	95.44
611.978	97.44
612.422	97.44
612.866	101.44
613.31	100.44
613.753	94.44
614.197	84.44
614.641	79.44
615.085	89.44
615.528	76.44
615.972	78.44
616.416	84.44
616.859	76.44
617.303	86.44
617.746	79.44
618.19	72.44
618.633	73.44
619.077	80.44
619.52	64.44
619.964	82.44
620.407	77.44
620.85	71.44
621.294	59.44
621.737	79.44
622.18	68.44
622.624	68.44
623.067	71.44
623.51	60.44
623.953	56.44
624.396	65.44
624.839	71.44
625.282	61.44
625.725	61.44
626.168	59.44
626.611	58.44
627.054	49.44
627.497	59.44
627.94	69.44
628.383	63.44
628.826	50.44
629.269	60.44
629.712	55.44
630.154	55.44
630.597	46.44
631.04	49.44
631.483	48.44
631.925	54.44
632.368	59.44
632.81	53.44
633.253	57.44
633.696	55.44
634.138	55.44
634.581	58.44
635.023	47.44
635.465	51.44
635.908	47.44
636.35	54.44
636.793	57.44
637.235	53.44
637.677	47.44
638.119	52.44
638.562	41.44
639.004	44.44
639.446	41.44
639.888	56.44
640.33	48.44
640.772	44.44
641.215	47.44
641.657	39.44
642.099	45.44
642.541	45.44
642.983	47.44
643.425	48.44
643.866	38.44
644.308	40.44
644.75	47.44
645.192	40.44
645.634	49.44
646.076	55.44
646.517	53.44
646.959	46.44
647.401	39.44
647.842	43.44
648.284	43.44
648.726	35.44
649.167	48.44
649.609	49.44
650.05	47.44
650.492	46.44
650.933	48.44
651.375	37.44
651.816	54.44
652.257	42.44
652.699	36.44
653.14	40.44
653.581	43.44
654.023	35.44
654.464	43.44
654.905	43.44
655.346	45.44
655.787	45.44
656.228	52.44
656.67	36.44
657.111	32.44
657.552	37.44
657.993	37.44
658.434	44.44
658.875	49.44
659.316	39.44
659.756	40.44
660.197	42.44
660.638	36.44
661.079	43.44
661.52	33.44
661.961	36.44
662.401	47.44
662.842	44.44
663.283	34.44
663.723	38.44
664.164	42.44
664.604	34.44
665.045	41.44
665.486	37.44
665.926	42.44
666.367	40.44
666.807	29.44
667.247	47.44
667.688	45.44
668.128	41.44
668.569	37.44
669.009	33.44
669.449	39.44
669.889	36.44
670.33	29.44
670.77	35.44
671.21	36.44
671.65	35.44
672.09	39.44
672.53	37.44
672.97	45.44
673.41	43.44
673.85	32.44
674.29	40.44
674.73	43.44
675.17	29.44
675.61	33.44
676.05	33.44
676.49	30.44
676.93	36.44
677.37	35.44
677.809	41.44
678.249	41.44
678.689	41.44
679.128	37.44
679.568	41.44
680.008	35.44
680.447	26.44
680.887	29.44
681.326	25.44
681.766	29.44
682.205	26.44
682.645	31.44
683.084	29.44
683.523	30.44
683.963	39.44
684.402	38.44
684.841	28.44
685.281	31.44
685.72	29.44
686.159	40.44
686.598	34.44
687.038	30.44
687.477	32.44
687.916	32.44
688.355	33.44
688.794	36.44
689.233	29.44
689.672	30.44
690.111	26.44
690.55	35.44
690.989	24.44
691.428	39.44
691.867	30.44
692.305	26.44
692.744	29.44
693.183	31.44
693.622	33.44
694.06	33.44
694.499	31.44
694.938	31.44
695.376	37.44
695.815	31.44
696.254	35.44
696.692	20.44
697.131	30.44
697.569	29.44
698.008	25.44
698.446	31.44
698.884	26.44
699.323	41.44
699.761	32.44
700.199	25.44
700.638	21.44
701.076	31.44
701.514	31.44
701.952	27.44
702.391	38.44
702.829	28.44
703.267	24.44
703.705	31.44
704.143	33.44
704.581	32.44
705.019	45.44
705.457	34.44
705.895	26.44
706.333	31.44
706.771	31.44
707.209	34.44
707.647	35.44
708.084	28.44
708.522	32.44
708.96	37.44
709.398	35.44
709.835	27.44
710.273	27.44
710.711	25.44
711.148	33.44
711.586	37.44
712.023	25.44
712.461	25.44
712.898	36.44
713.336	34.44
713.773	31.44
714.211	25.44
714.648	27.44
715.086	28.44
715.523	25.44
715.96	31.44
716.397	28.44
716.835	26.44
717.272	31.44
717.709	28.44
718.146	29.44
718.583	29.44
719.021	27.44
719.458	25.44
719.895	24.44
720.332	22.44
720.769	31.44
721.206	28.44
721.643	33.44
722.079	31.44
722.516	36.44
722.953	32.44
723.39	30.44
723.827	25.44
724.264	37.44
724.7	29.44
725.137	33.44
725.574	22.44
726.01	30.44
726.447	32.44
726.884	37.44
727.32	37.44
727.757	30.44
728.193	24.44
728.63	28.44
729.066	29.44
729.503	27.44
729.939	24.44
730.375	35.44
730.812	31.44
731.248	23.44
731.684	32.44
732.121	17.44
732.557	26.44
732.993	27.44
733.429	25.44
733.865	27.44
734.301	29.44
734.738	30.44
735.174	30.44
735.61	17.44
736.046	31.44
736.482	21.44
736.918	29.44
737.354	25.44
737.789	30.44
738.225	28.44
738.661	32.44
739.097	30.44
739.533	20.44
739.968	25.44
740.404	27.44
740.84	30.44
741.276	30.44
741.711	27.44
742.147	30.44
742.582	25.44
743.018	32.44
743.453	21.44
743.889	31.44
744.324	34.44
744.76	30.44
745.195	25.44
745.631	34.44
746.066	31.44
746.501	27.44
746.937	31.44
747.372	34.44
747.807	28.44
748.242	25.44
748.677	23.44
749.113	29.44
749.548	21.44
749.983	28.44
750.418	30.44
750.853	30.44
751.288	28.44
751.723	27.44
752.158	23.44
752.593	36.44
753.028	38.44
753.463	28.44
753.897	29.44
754.332	23.44
754.767	20.44
755.202	31.44
755.637	26.44
756.071	31.44
756.506	25.44
756.941	31.44
757.375	30.44
757.81	29.44
758.244	26.44
758.679	30.44
759.113	25.44
759.548	20.44
759.982	27.44
760.417	40.44
760.851	25.44
761.285	27.44
761.72	35.44
762.154	24.44
762.588	25.44
763.023	27.44
763.457	31.44
763.891	24.44
764.325	29.44
764.759	32.44
765.193	25.44
765.627	31.44
766.061	17.44
766.496	29.44
766.929	25.44
767.363	24.44
767.797	23.44
768.231	27.44
768.665	23.44
769.099	23.44
769.533	35.44
769.967	41.44
770.4	28.44
770.834	24.44
771.268	30.44
771.701	24.44
772.135	26.44
772.569	21.44
773.002	35.44
773.436	28.44
773.869	35.44
774.303	27.44
774.736	23.44
775.17	28.44
775.603	27.44
776.037	27.44
776.47	31.44
776.903	17.44
777.337	23.44
777.77	25.44
778.203	30.44
778.636	26.44
779.07	21.44
779.503	30.44
779.936	24.44
780.369	27.44
780.802	26.44
781.235	21.44
781.668	30.44
782.101	36.44
782.534	30.44
782.967	29.44
783.4	26.44
783.833	27.44
784.266	29.44
784.699	26.44
785.131	25.44
785.564	23.44
785.997	32.44
786.43	40.44
786.862	31.44
787.295	26.44
787.727	31.44
788.16	32.44
788.593	25.44
789.025	27.44
789.458	22.44
789.89	17.44
790.323	23.44
790.755	27.44
791.187	23.44
791.62	24.44
792.052	21.44
792.484	27.44
792.917	25.44
793.349	25.44
793.781	24.44
794.213	27.44
794.645	23.44
795.078	31.44
795.51	30.44
795.942	25.44
796.374	31.44
796.806	19.44
797.238	28.44
797.67	27.44
798.102	30.44
798.534	24.44
798.966	16.44
799.397	19.44
799.829	26.44
800.261	14.44
800.693	33.44
801.124	21.44
801.556	23.44
801.988	34.44
802.42	32.44
802.851	21.44
803.283	27.44
803.714	22.44
804.146	37.44
804.577	25.44
805.009	18.44
805.44	23.44
805.872	28.44
806.303	29.44
806.734	22.44
807.166	29.44
807.597	25.44
808.028	28.44
808.46	26.44
808.891	28.44
809.322	34.44
809.753	33.44
810.184	25.44
810.615	26.44
811.046	16.44
811.478	24.44
811.909	28.44
812.34	19.44
812.77	25.44
813.201	23.44
