Data from HR2B16521__4__17-57-29-473.txt Node

Date: Wed Jan 29 17:57:29 EST 2025
User: Lanmp
Spectrometer: HR2B1652
Trigger mode: 4
Integration Time (sec): 1.000000E-1
Scans to average: 1
Electric dark correction enabled: true
Nonlinearity correction enabled: false
Boxcar width: 0
XAxis mode: Wavelengths
Number of Pixels in Spectrum: 2048
>>>>>Begin Spectral Data<<<<<
188.381	-301.78
188.85	5.22
189.319	10.22
189.787	3.22
190.256	11.22
190.725	16.22
191.193	24.22
191.662	24.22
192.13	20.22
192.599	18.22
193.067	15.22
193.536	26.22
194.004	20.22
194.473	16.22
194.941	13.22
195.409	26.22
195.878	24.22
196.346	27.22
196.814	15.22
197.282	20.22
197.751	23.22
198.219	19.22
198.687	23.22
199.155	14.22
199.623	17.22
200.091	23.22
200.559	12.22
201.028	20.22
201.496	24.22
201.964	19.22
202.432	21.22
202.899	26.22
203.367	22.22
203.835	20.22
204.303	25.22
204.771	29.22
205.239	23.22
205.707	29.22
206.174	22.22
206.642	20.22
207.11	15.22
207.577	33.22
208.045	23.22
208.513	25.22
208.98	22.22
209.448	29.22
209.915	27.22
210.383	36.22
210.851	29.22
211.318	29.22
211.785	31.22
212.253	29.22
212.72	27.22
213.188	28.22
213.655	25.22
214.122	18.22
214.59	22.22
215.057	25.22
215.524	28.22
215.991	17.22
216.459	24.22
216.926	23.22
217.393	24.22
217.86	36.22
218.327	20.22
218.794	25.22
219.261	21.22
219.728	23.22
220.195	27.22
220.662	32.22
221.129	23.22
221.596	35.22
222.063	26.22
222.53	31.22
222.997	26.22
223.463	18.22
223.93	19.22
224.397	26.22
224.864	24.22
225.33	29.22
225.797	31.22
226.264	28.22
226.73	26.22
227.197	30.22
227.663	25.22
228.13	24.22
228.596	27.22
229.063	30.22
229.529	29.22
229.996	35.22
230.462	20.22
230.929	22.22
231.395	25.22
231.861	31.22
232.328	28.22
232.794	33.22
233.26	26.22
233.726	22.22
234.193	40.22
234.659	33.22
235.125	26.22
235.591	30.22
236.057	23.22
236.523	23.22
236.989	19.22
237.455	25.22
237.921	19.22
238.387	30.22
238.853	30.22
239.319	31.22
239.785	30.22
240.251	34.22
240.717	24.22
241.183	27.22
241.648	32.22
242.114	40.22
242.58	27.22
243.046	24.22
243.511	31.22
243.977	30.22
244.443	26.22
244.908	21.22
245.374	25.22
245.839	35.22
246.305	38.22
246.77	21.22
247.236	33.22
247.701	33.22
248.167	22.22
248.632	39.22
249.098	33.22
249.563	28.22
250.028	21.22
250.493	31.22
250.959	29.22
251.424	34.22
251.889	24.22
252.354	29.22
252.82	26.22
253.285	28.22
253.75	37.22
254.215	35.22
254.68	33.22
255.145	35.22
255.61	32.22
256.075	28.22
256.54	38.22
257.005	33.22
257.47	24.22
257.935	30.22
258.4	22.22
258.864	26.22
259.329	24.22
259.794	18.22
260.259	25.22
260.723	28.22
261.188	28.22
261.653	33.22
262.117	32.22
262.582	30.22
263.047	29.22
263.511	35.22
263.976	31.22
264.44	33.22
264.905	36.22
265.369	31.22
265.834	39.22
266.298	27.22
266.762	25.22
267.227	28.22
267.691	20.22
268.155	37.22
268.62	24.22
269.084	28.22
269.548	36.22
270.012	25.22
270.476	34.22
270.941	37.22
271.405	36.22
271.869	30.22
272.333	30.22
272.797	43.22
273.261	29.22
273.725	29.22
274.189	30.22
274.653	30.22
275.117	24.22
275.581	34.22
276.044	19.22
276.508	29.22
276.972	34.22
277.436	20.22
277.9	22.22
278.363	31.22
278.827	32.22
279.291	28.22
279.754	34.22
280.218	32.22
280.682	43.22
281.145	24.22
281.609	29.22
282.072	27.22
282.536	30.22
282.999	21.22
283.463	31.22
283.926	34.22
284.389	39.22
284.853	34.22
285.316	35.22
285.779	29.22
286.243	30.22
286.706	34.22
287.169	37.22
287.632	41.22
288.096	39.22
288.559	40.22
289.022	31.22
289.485	28.22
289.948	39.22
290.411	35.22
290.874	31.22
291.337	37.22
291.8	36.22
292.263	42.22
292.726	32.22
293.189	31.22
293.652	29.22
294.114	29.22
294.577	34.22
295.04	33.22
295.503	35.22
295.966	24.22
296.428	36.22
296.891	34.22
297.354	33.22
297.816	38.22
298.279	36.22
298.741	31.22
299.204	31.22
299.666	41.22
300.129	28.22
300.591	47.22
301.054	36.22
301.516	31.22
301.979	34.22
302.441	29.22
302.903	26.22
303.366	40.22
303.828	35.22
304.29	26.22
304.752	23.22
305.215	27.22
305.677	20.22
306.139	32.22
306.601	30.22
307.063	38.22
307.525	32.22
307.987	35.22
308.449	28.22
308.911	27.22
309.373	29.22
309.835	34.22
310.297	31.22
310.759	30.22
311.221	34.22
311.683	32.22
312.145	25.22
312.606	34.22
313.068	29.22
313.53	38.22
313.992	33.22
314.453	36.22
314.915	39.22
315.376	31.22
315.838	32.22
316.3	35.22
316.761	30.22
317.223	36.22
317.684	35.22
318.146	38.22
318.607	35.22
319.069	30.22
319.53	30.22
319.991	35.22
320.453	38.22
320.914	41.22
321.375	27.22
321.836	32.22
322.298	44.22
322.759	27.22
323.22	33.22
323.681	24.22
324.142	28.22
324.603	32.22
325.064	26.22
325.526	36.22
325.987	32.22
326.448	29.22
326.909	35.22
327.369	38.22
327.83	33.22
328.291	39.22
328.752	36.22
329.213	32.22
329.674	27.22
330.135	46.22
330.595	29.22
331.056	34.22
331.517	36.22
331.977	34.22
332.438	39.22
332.899	35.22
333.359	32.22
333.82	35.22
334.28	37.22
334.741	37.22
335.201	39.22
335.662	28.22
336.122	24.22
336.583	35.22
337.043	35.22
337.503	32.22
337.964	37.22
338.424	43.22
338.884	35.22
339.345	33.22
339.805	37.22
340.265	29.22
340.725	35.22
341.185	23.22
341.645	25.22
342.105	31.22
342.566	38.22
343.026	35.22
343.486	39.22
343.946	32.22
344.406	27.22
344.865	38.22
345.325	35.22
345.785	31.22
346.245	33.22
346.705	23.22
347.165	36.22
347.625	29.22
348.084	39.22
348.544	38.22
349.004	35.22
349.463	29.22
349.923	36.22
350.383	42.22
350.842	34.22
351.302	27.22
351.761	29.22
352.221	37.22
352.68	33.22
353.14	42.22
353.599	33.22
354.059	39.22
354.518	31.22
354.977	33.22
355.437	25.22
355.896	33.22
356.355	31.22
356.814	36.22
357.274	21.22
357.733	36.22
358.192	33.22
358.651	28.22
359.11	27.22
359.569	22.22
360.028	35.22
360.487	32.22
360.946	33.22
361.405	38.22
361.864	23.22
362.323	29.22
362.782	39.22
363.241	39.22
363.7	29.22
364.159	35.22
364.617	34.22
365.076	35.22
365.535	41.22
365.994	36.22
366.452	40.22
366.911	42.22
367.37	34.22
367.828	31.22
368.287	31.22
368.745	30.22
369.204	27.22
369.662	30.22
370.121	31.22
370.579	41.22
371.038	30.22
371.496	34.22
371.955	27.22
372.413	31.22
372.871	34.22
373.329	30.22
373.788	28.22
374.246	29.22
374.704	38.22
375.162	37.22
375.62	35.22
376.079	30.22
376.537	33.22
376.995	32.22
377.453	33.22
377.911	39.22
378.369	31.22
378.827	38.22
379.285	41.22
379.743	39.22
380.201	42.22
380.658	41.22
381.116	32.22
381.574	39.22
382.032	34.22
382.49	28.22
382.947	24.22
383.405	33.22
383.863	26.22
384.32	40.22
384.778	30.22
385.236	37.22
385.693	30.22
386.151	27.22
386.608	29.22
387.066	40.22
387.523	28.22
387.981	33.22
388.438	32.22
388.895	24.22
389.353	24.22
389.81	43.22
390.267	38.22
390.725	38.22
391.182	35.22
391.639	39.22
392.096	30.22
392.553	40.22
393.011	38.22
393.468	33.22
393.925	40.22
394.382	48.22
394.839	32.22
395.296	33.22
395.753	38.22
396.21	31.22
396.667	39.22
397.124	39.22
397.58	34.22
398.037	34.22
398.494	27.22
398.951	25.22
399.408	36.22
399.864	41.22
400.321	37.22
400.778	30.22
401.234	38.22
401.691	43.22
402.148	39.22
402.604	34.22
403.061	41.22
403.517	41.22
403.974	38.22
404.43	34.22
404.887	30.22
405.343	38.22
405.8	36.22
406.256	41.22
406.712	39.22
407.169	40.22
407.625	33.22
408.081	41.22
408.537	43.22
408.994	48.22
409.45	42.22
409.906	50.22
410.362	38.22
410.818	37.22
411.274	48.22
411.73	40.22
412.186	52.22
412.642	55.22
413.098	54.22
413.554	53.22
414.01	64.22
414.466	65.22
414.922	51.22
415.378	68.22
415.833	67.22
416.289	69.22
416.745	69.22
417.201	71.22
417.656	83.22
418.112	86.22
418.568	87.22
419.023	88.22
419.479	104.22
419.934	91.22
420.39	113.22
420.845	103.22
421.301	119.22
421.756	129.22
422.212	136.22
422.667	128.22
423.122	130.22
423.578	148.22
424.033	157.22
424.488	160.22
424.944	174.22
425.399	174.22
425.854	185.22
426.309	205.22
426.764	221.22
427.22	227.22
427.675	245.22
428.13	267.22
428.585	269.22
429.04	287.22
429.495	312.22
429.95	332.22
430.405	342.22
430.86	348.22
431.315	386.22
431.769	401.22
432.224	412.22
432.679	441.22
433.134	475.22
433.589	479.22
434.043	491.22
434.498	514.22
434.953	525.22
435.407	572.22
435.862	576.22
436.317	596.22
436.771	624.22
437.226	608.22
437.68	644.22
438.135	656.22
438.589	692.22
439.044	685.22
439.498	754.22
439.952	772.22
440.407	745.22
440.861	771.22
441.315	762.22
441.77	808.22
442.224	763.22
442.678	868.22
443.132	809.22
443.586	882.22
444.04	849.22
444.495	868.22
444.949	888.22
445.403	863.22
445.857	911.22
446.311	909.22
446.765	929.22
447.219	902.22
447.673	883.22
448.126	884.22
448.58	887.22
449.034	878.22
449.488	824.22
449.942	833.22
450.396	764.22
450.849	799.22
451.303	762.22
451.757	745.22
452.21	706.22
452.664	690.22
453.117	665.22
453.571	613.22
454.025	622.22
454.478	558.22
454.932	559.22
455.385	552.22
455.838	502.22
456.292	469.22
456.745	450.22
457.199	457.22
457.652	422.22
458.105	404.22
458.559	409.22
459.012	384.22
459.465	369.22
459.918	351.22
460.371	332.22
460.824	340.22
461.278	327.22
461.731	302.22
462.184	310.22
462.637	288.22
463.09	283.22
463.543	251.22
463.996	274.22
464.449	228.22
464.901	218.22
465.354	221.22
465.807	212.22
466.26	207.22
466.713	187.22
467.165	188.22
467.618	196.22
468.071	171.22
468.524	166.22
468.976	178.22
469.429	171.22
469.881	169.22
470.334	162.22
470.787	151.22
471.239	166.22
471.692	151.22
472.144	153.22
472.596	146.22
473.049	159.22
473.501	140.22
473.954	141.22
474.406	137.22
474.858	164.22
475.31	139.22
475.763	148.22
476.215	143.22
476.667	156.22
477.119	149.22
477.571	148.22
478.024	148.22
478.476	136.22
478.928	147.22
479.38	156.22
479.832	144.22
480.284	144.22
480.736	160.22
481.187	148.22
481.639	164.22
482.091	162.22
482.543	167.22
482.995	163.22
483.447	168.22
483.898	158.22
484.35	165.22
484.802	166.22
485.254	176.22
485.705	174.22
486.157	160.22
486.608	181.22
487.06	191.22
487.511	167.22
487.963	175.22
488.414	192.22
488.866	174.22
489.317	181.22
489.769	188.22
490.22	182.22
490.671	173.22
491.123	194.22
491.574	195.22
492.025	192.22
492.477	199.22
492.928	195.22
493.379	189.22
493.83	196.22
494.281	196.22
494.732	211.22
495.183	211.22
495.634	206.22
496.085	203.22
496.536	224.22
496.987	206.22
497.438	209.22
497.889	239.22
498.34	231.22
498.791	251.22
499.242	253.22
499.693	257.22
500.143	258.22
500.594	270.22
501.045	273.22
501.496	296.22
501.946	295.22
502.397	302.22
502.848	323.22
503.298	318.22
503.749	342.22
504.199	343.22
504.65	358.22
505.1	389.22
505.551	374.22
506.001	387.22
506.451	393.22
506.902	411.22
507.352	418.22
507.802	437.22
508.253	454.22
508.703	454.22
509.153	456.22
509.603	467.22
510.054	494.22
510.504	492.22
510.954	504.22
511.404	508.22
511.854	516.22
512.304	529.22
512.754	530.22
513.204	534.22
513.654	560.22
514.104	555.22
514.554	583.22
515.004	572.22
515.454	580.22
515.903	585.22
516.353	584.22
516.803	601.22
517.253	589.22
517.702	624.22
518.152	589.22
518.602	622.22
519.051	623.22
519.501	617.22
519.951	617.22
520.4	630.22
520.85	622.22
521.299	622.22
521.749	625.22
522.198	637.22
522.647	665.22
523.097	666.22
523.546	690.22
523.996	738.22
524.445	758.22
524.894	802.22
525.343	822.22
525.793	834.22
526.242	878.22
526.691	928.22
527.14	947.22
527.589	983.22
528.038	1005.22
528.487	1028.22
528.936	1079.22
529.385	1077.22
529.834	1101.22
530.283	1127.22
530.732	1127.22
531.181	1168.22
531.63	1149.22
532.079	1166.22
532.528	1209.22
532.976	1185.22
533.425	1242.22
533.874	1234.22
534.323	1247.22
534.771	1246.22
535.22	1238.22
535.669	1233.22
536.117	1275.22
536.566	1293.22
537.014	1294.22
537.463	1291.22
537.911	1309.22
538.36	1316.22
538.808	1297.22
539.256	1332.22
539.705	1330.22
540.153	1332.22
540.602	1312.22
541.05	1337.22
541.498	1353.22
541.946	1340.22
542.395	1337.22
542.843	1342.22
543.291	1332.22
543.739	1375.22
544.187	1367.22
544.635	1332.22
545.083	1326.22
545.531	1326.22
545.979	1347.22
546.427	1334.22
546.875	1356.22
547.323	1329.22
547.771	1294.22
548.219	1308.22
548.667	1302.22
549.114	1329.22
549.562	1287.22
550.01	1309.22
550.458	1295.22
550.905	1298.22
551.353	1303.22
551.801	1296.22
552.248	1270.22
552.696	1269.22
553.143	1252.22
553.591	1246.22
554.038	1277.22
554.486	1266.22
554.933	1258.22
555.381	1252.22
555.828	1207.22
556.275	1232.22
556.723	1227.22
557.17	1250.22
557.617	1217.22
558.065	1193.22
558.512	1194.22
558.959	1181.22
559.406	1195.22
559.853	1184.22
560.3	1213.22
560.747	1162.22
561.195	1175.22
561.642	1181.22
562.089	1140.22
562.536	1127.22
562.982	1171.22
563.429	1127.22
563.876	1124.22
564.323	1121.22
564.77	1110.22
565.217	1107.22
565.664	1085.22
566.11	1070.22
566.557	1094.22
567.004	1074.22
567.45	1106.22
567.897	1066.22
568.344	1055.22
568.79	1077.22
569.237	1033.22
569.683	1067.22
570.13	1034.22
570.576	1025.22
571.023	1023.22
571.469	1001.22
571.916	1000.22
572.362	984.22
572.808	988.22
573.255	972.22
573.701	952.22
574.147	929.22
574.593	967.22
575.04	941.22
575.486	949.22
575.932	903.22
576.378	888.22
576.824	909.22
577.27	873.22
577.716	882.22
578.162	884.22
578.608	846.22
579.054	840.22
579.5	826.22
579.946	810.22
580.392	815.22
580.838	819.22
581.284	792.22
581.729	780.22
582.175	782.22
582.621	798.22
583.066	746.22
583.512	762.22
583.958	755.22
584.403	751.22
584.849	731.22
585.295	727.22
585.74	711.22
586.186	714.22
586.631	697.22
587.077	686.22
587.522	698.22
587.967	665.22
588.413	668.22
588.858	649.22
589.303	649.22
589.749	624.22
590.194	613.22
590.639	601.22
591.084	599.22
591.53	583.22
591.975	579.22
592.42	566.22
592.865	558.22
593.31	568.22
593.755	544.22
594.2	536.22
594.645	539.22
595.09	497.22
595.535	514.22
595.98	504.22
596.425	478.22
596.87	476.22
597.314	461.22
597.759	460.22
598.204	456.22
598.649	455.22
599.094	455.22
599.538	447.22
599.983	433.22
600.427	408.22
600.872	405.22
601.317	412.22
601.761	428.22
602.206	400.22
602.65	399.22
603.095	392.22
603.539	364.22
603.983	391.22
604.428	356.22
604.872	362.22
605.317	365.22
605.761	348.22
606.205	350.22
606.649	343.22
607.094	325.22
607.538	326.22
607.982	323.22
608.426	304.22
608.87	325.22
609.314	303.22
609.758	317.22
610.202	324.22
610.646	290.22
611.09	287.22
611.534	289.22
611.978	285.22
612.422	281.22
612.866	275.22
613.31	267.22
613.753	274.22
614.197	275.22
614.641	267.22
615.085	250.22
615.528	254.22
615.972	232.22
616.416	255.22
616.859	236.22
617.303	244.22
617.746	243.22
618.19	224.22
618.633	227.22
619.077	224.22
619.52	230.22
619.964	230.22
620.407	217.22
620.85	216.22
621.294	205.22
621.737	193.22
622.18	200.22
622.624	203.22
623.067	195.22
623.51	193.22
623.953	192.22
624.396	191.22
624.839	200.22
625.282	202.22
625.725	191.22
626.168	185.22
626.611	180.22
627.054	178.22
627.497	181.22
627.94	183.22
628.383	179.22
628.826	174.22
629.269	172.22
629.712	167.22
630.154	160.22
630.597	160.22
631.04	170.22
631.483	169.22
631.925	151.22
632.368	153.22
632.81	163.22
633.253	143.22
633.696	146.22
634.138	146.22
634.581	139.22
635.023	138.22
635.465	144.22
635.908	133.22
636.35	136.22
636.793	133.22
637.235	136.22
637.677	125.22
638.119	126.22
638.562	140.22
639.004	133.22
639.446	128.22
639.888	130.22
640.33	134.22
640.772	124.22
641.215	127.22
641.657	115.22
642.099	123.22
642.541	114.22
642.983	115.22
643.425	126.22
643.866	106.22
644.308	116.22
644.75	120.22
645.192	111.22
645.634	108.22
646.076	109.22
646.517	111.22
646.959	97.22
647.401	111.22
647.842	111.22
648.284	108.22
648.726	98.22
649.167	103.22
649.609	99.22
650.05	106.22
650.492	86.22
650.933	96.22
651.375	104.22
651.816	92.22
652.257	82.22
652.699	99.22
653.14	94.22
653.581	97.22
654.023	93.22
654.464	80.22
654.905	77.22
655.346	78.22
655.787	90.22
656.228	79.22
656.67	82.22
657.111	83.22
657.552	84.22
657.993	69.22
658.434	83.22
658.875	83.22
659.316	78.22
659.756	76.22
660.197	79.22
660.638	78.22
661.079	81.22
661.52	74.22
661.961	80.22
662.401	77.22
662.842	66.22
663.283	61.22
663.723	69.22
664.164	66.22
664.604	79.22
665.045	74.22
665.486	68.22
665.926	71.22
666.367	72.22
666.807	75.22
667.247	74.22
667.688	76.22
668.128	64.22
668.569	66.22
669.009	65.22
669.449	71.22
669.889	63.22
670.33	60.22
670.77	64.22
671.21	65.22
671.65	63.22
672.09	58.22
672.53	61.22
672.97	61.22
673.41	61.22
673.85	64.22
674.29	54.22
674.73	55.22
675.17	64.22
675.61	58.22
676.05	80.22
676.49	62.22
676.93	53.22
677.37	56.22
677.809	55.22
678.249	61.22
678.689	51.22
679.128	56.22
679.568	62.22
680.008	60.22
680.447	56.22
680.887	52.22
681.326	45.22
681.766	54.22
682.205	55.22
682.645	61.22
683.084	53.22
683.523	63.22
683.963	49.22
684.402	51.22
684.841	55.22
685.281	59.22
685.72	48.22
686.159	41.22
686.598	49.22
687.038	38.22
687.477	45.22
687.916	56.22
688.355	51.22
688.794	46.22
689.233	44.22
689.672	56.22
690.111	46.22
690.55	45.22
690.989	53.22
691.428	49.22
691.867	45.22
692.305	45.22
692.744	46.22
693.183	34.22
693.622	41.22
694.06	42.22
694.499	43.22
694.938	38.22
695.376	48.22
695.815	46.22
696.254	40.22
696.692	47.22
697.131	50.22
697.569	42.22
698.008	36.22
698.446	43.22
698.884	37.22
699.323	37.22
699.761	38.22
700.199	38.22
700.638	33.22
701.076	31.22
701.514	43.22
701.952	47.22
702.391	53.22
702.829	40.22
703.267	40.22
703.705	40.22
704.143	40.22
704.581	40.22
705.019	41.22
705.457	33.22
705.895	33.22
706.333	41.22
706.771	42.22
707.209	42.22
707.647	38.22
708.084	46.22
708.522	42.22
708.96	29.22
709.398	35.22
709.835	45.22
710.273	30.22
710.711	41.22
711.148	35.22
711.586	33.22
712.023	34.22
712.461	33.22
712.898	40.22
713.336	34.22
713.773	38.22
714.211	42.22
714.648	45.22
715.086	40.22
715.523	34.22
715.96	30.22
716.397	45.22
716.835	41.22
717.272	35.22
717.709	43.22
718.146	36.22
718.583	36.22
719.021	30.22
719.458	41.22
719.895	43.22
720.332	34.22
720.769	38.22
721.206	33.22
721.643	37.22
722.079	38.22
722.516	38.22
722.953	31.22
723.39	35.22
723.827	36.22
724.264	35.22
724.7	30.22
725.137	25.22
725.574	32.22
726.01	32.22
726.447	32.22
726.884	31.22
727.32	27.22
727.757	38.22
728.193	31.22
728.63	26.22
729.066	32.22
729.503	25.22
729.939	35.22
730.375	37.22
730.812	36.22
731.248	21.22
731.684	32.22
732.121	34.22
732.557	45.22
732.993	28.22
733.429	38.22
733.865	32.22
734.301	29.22
734.738	39.22
735.174	27.22
735.61	33.22
736.046	34.22
736.482	32.22
736.918	34.22
737.354	24.22
737.789	32.22
738.225	39.22
738.661	38.22
739.097	34.22
739.533	29.22
739.968	25.22
740.404	26.22
740.84	33.22
741.276	29.22
741.711	30.22
742.147	39.22
742.582	27.22
743.018	29.22
743.453	26.22
743.889	31.22
744.324	29.22
744.76	30.22
745.195	30.22
745.631	33.22
746.066	31.22
746.501	27.22
746.937	28.22
747.372	27.22
747.807	28.22
748.242	29.22
748.677	41.22
749.113	35.22
749.548	30.22
749.983	24.22
750.418	34.22
750.853	32.22
751.288	32.22
751.723	34.22
752.158	38.22
752.593	26.22
753.028	29.22
753.463	34.22
753.897	34.22
754.332	30.22
754.767	31.22
755.202	30.22
755.637	31.22
756.071	35.22
756.506	36.22
756.941	36.22
757.375	29.22
757.81	34.22
758.244	28.22
758.679	23.22
759.113	30.22
759.548	30.22
759.982	33.22
760.417	33.22
760.851	29.22
761.285	32.22
761.72	37.22
762.154	36.22
762.588	31.22
763.023	36.22
763.457	34.22
763.891	33.22
764.325	37.22
764.759	26.22
765.193	27.22
765.627	44.22
766.061	32.22
766.496	25.22
766.929	28.22
767.363	31.22
767.797	31.22
768.231	33.22
768.665	34.22
769.099	27.22
769.533	34.22
769.967	43.22
770.4	31.22
770.834	33.22
771.268	29.22
771.701	29.22
772.135	28.22
772.569	40.22
773.002	29.22
773.436	30.22
773.869	34.22
774.303	37.22
774.736	32.22
775.17	31.22
775.603	32.22
776.037	27.22
776.47	27.22
776.903	35.22
777.337	38.22
777.77	37.22
778.203	22.22
778.636	30.22
779.07	30.22
779.503	29.22
779.936	26.22
780.369	39.22
780.802	24.22
781.235	30.22
781.668	25.22
782.101	26.22
782.534	26.22
782.967	28.22
783.4	25.22
783.833	30.22
784.266	28.22
784.699	27.22
785.131	24.22
785.564	30.22
785.997	38.22
786.43	31.22
786.862	35.22
787.295	25.22
787.727	27.22
788.16	28.22
788.593	30.22
789.025	28.22
789.458	28.22
789.89	24.22
790.323	34.22
790.755	29.22
791.187	33.22
791.62	37.22
792.052	26.22
792.484	26.22
792.917	22.22
793.349	25.22
793.781	30.22
794.213	24.22
794.645	26.22
795.078	23.22
795.51	20.22
795.942	24.22
796.374	34.22
796.806	33.22
797.238	29.22
797.67	38.22
798.102	35.22
798.534	34.22
798.966	22.22
799.397	20.22
799.829	30.22
800.261	35.22
800.693	23.22
801.124	38.22
801.556	26.22
801.988	34.22
802.42	31.22
802.851	33.22
803.283	37.22
803.714	33.22
804.146	27.22
804.577	27.22
805.009	35.22
805.44	23.22
